File: data/ThickFilm.csv
Latest: Wavelength (nm),Run 1: Intensity (rel),Run 2: Intensity (rel),Run 3: Intensity (rel),Run 4: Intensity (rel),Run 5: Intensity (rel),Run 6: Intensity (rel),Run 7: Intensity (rel),Run 8: Intensity (rel),Run 9: Intensity (rel),Run 10: Intensity (rel)
380,0.005,0.005,0.005,0.005,0.005,0.005,0.005,0.005,0.005,0.006
383,0.007,0.007,0.007,0.007,0.007,0.007,0.007,0.007,0.007,0.007
386,0.01,0.01,0.009,0.009,0.01,0.01,0.009,0.009,0.01,0.01
389,0.011,0.011,0.011,0.011,0.011,0.011,0.011,0.011,0.011,0.011
392,0.013,0.013,0.013,0.013,0.012,0.013,0.013,0.013,0.013,0.013
395,0.016,0.015,0.015,0.015,0.015,0.015,0.015,0.016,0.015,0.015
398,0.017,0.017,0.017,0.017,0.017,0.018,0.018,0.017,0.017,0.018
401,0.019,0.02,0.02,0.02,0.02,0.02,0.02,0.019,0.02,0.02
404,0.022,0.021,0.022,0.022,0.022,0.022,0.021,0.021,0.021,0.021
407,0.022,0.022,0.022,0.022,0.022,0.023,0.022,0.022,0.022,0.022
410,0.023,0.023,0.024,0.023,0.023,0.023,0.023,0.023,0.023,0.023
413,0.023,0.023,0.023,0.023,0.023,0.024,0.023,0.024,0.023,0.023
416,0.022,0.023,0.022,0.023,0.022,0.022,0.022,0.022,0.022,0.022
419,0.021,0.021,0.021,0.021,0.021,0.021,0.02,0.021,0.021,0.021
422,0.018,0.019,0.018,0.018,0.019,0.018,0.018,0.018,0.019,0.019
425,0.016,0.017,0.017,0.017,0.017,0.017,0.016,0.017,0.017,0.017
428,0.014,0.015,0.015,0.014,0.015,0.015,0.015,0.015,0.015,0.015
431,0.013,0.013,0.013,0.013,0.012,0.013,0.013,0.013,0.013,0.012
434,0.011,0.011,0.011,0.011,0.011,0.011,0.011,0.011,0.011,0.011
437,0.01,0.01,0.009,0.009,0.01,0.01,0.009,0.01,0.01,0.009
440,0.008,0.008,0.008,0.008,0.008,0.008,0.008,0.008,0.008,0.008
443,0.007,0.007,0.007,0.008,0.007,0.008,0.007,0.008,0.007,0.007
446,0.007,0.006,0.007,0.006,0.006,0.006,0.006,0.006,0.006,0.007
449,0.006,0.006,0.005,0.005,0.006,0.006,0.006,0.006,0.006,0.006
452,0.005,0.005,0.005,0.005,0.005,0.005,0.005,0.005,0.005,0.005
455,0.005,0.005,0.005,0.005,0.005,0.005,0.005,0.005,0.005,0.004
458,0.004,0.004,0.004,0.004,0.004,0.004,0.004,0.004,0.004,0.004
461,0.004,0.004,0.004,0.004,0.004,0.004,0.004,0.004,0.004,0.004
464,0.004,0.003,0.004,0.003,0.004,0.004,0.004,0.004,0.004,0.004
467,0.004,0.004,0.003,0.004,0.004,0.004,0.004,0.004,0.003,0.004
470,0.003,0.004,0.003,0.003,0.003,0.004,0.004,0.003,0.003,0.003
473,0.004,0.004,0.004,0.003,0.003,0.004,0.003,0.004,0.004,0.004
476,0.004,0.005,0.004,0.004,0.004,0.004,0.004,0.004,0.004,0.004
479,0.004,0.004,0.004,0.004,0.004,0.004,0.004,0.004,0.004,0.004
482,0.005,0.005,0.005,0.005,0.005,0.004,0.005,0.005,0.005,0.004
485,0.006,0.006,0.006,0.006,0.006,0.006,0.006,0.006,0.006,0.006
488,0.007,0.007,0.007,0.007,0.007,0.007,0.007,0.007,0.007,0.007
491,0.008,0.008,0.008,0.008,0.008,0.008,0.008,0.008,0.008,0.008
494,0.01,0.01,0.01,0.009,0.009,0.01,0.01,0.01,0.01,0.01
497,0.011,0.011,0.011,0.011,0.011,0.011,0.011,0.011,0.011,0.011
500,0.012,0.012,0.013,0.013,0.012,0.013,0.012,0.013,0.013,0.013
503,0.015,0.014,0.015,0.014,0.015,0.014,0.014,0.015,0.014,0.015
506,0.018,0.018,0.018,0.018,0.018,0.018,0.018,0.018,0.018,0.018
509,0.022,0.022,0.021,0.021,0.021,0.021,0.021,0.021,0.021,0.021
512,0.025,0.026,0.026,0.026,0.026,0.026,0.026,0.026,0.026,0.026
515,0.032,0.032,0.031,0.031,0.032,0.032,0.031,0.031,0.032,0.032
518,0.037,0.037,0.037,0.037,0.037,0.036,0.037,0.037,0.037,0.037
521,0.043,0.043,0.043,0.043,0.044,0.044,0.043,0.043,0.043,0.044
524,0.052,0.051,0.052,0.051,0.051,0.052,0.051,0.052,0.051,0.051
527,0.058,0.059,0.059,0.059,0.059,0.059,0.059,0.059,0.059,0.059
530,0.067,0.066,0.067,0.066,0.066,0.067,0.066,0.066,0.066,0.066
533,0.078,0.078,0.078,0.077,0.078,0.078,0.078,0.078,0.078,0.077
536,0.085,0.084,0.084,0.084,0.084,0.084,0.085,0.084,0.084,0.084
539,0.09,0.09,0.09,0.09,0.09,0.09,0.09,0.09,0.091,0.089
542,0.093,0.092,0.092,0.092,0.092,0.092,0.091,0.091,0.091,0.091
545,0.082,0.082,0.082,0.082,0.082,0.082,0.082,0.082,0.082,0.082
548,0.078,0.078,0.078,0.077,0.077,0.077,0.077,0.077,0.077,0.077
551,0.066,0.066,0.067,0.067,0.067,0.067,0.067,0.067,0.067,0.067
554,0.065,0.065,0.065,0.064,0.064,0.065,0.065,0.065,0.065,0.064
557,0.065,0.065,0.065,0.065,0.064,0.065,0.065,0.065,0.065,0.064
560,0.072,0.072,0.072,0.071,0.071,0.071,0.071,0.07,0.07,0.07
563,0.078,0.079,0.079,0.078,0.079,0.079,0.079,0.079,0.079,0.079
566,0.102,0.102,0.102,0.103,0.103,0.103,0.102,0.102,0.103,0.102
569,0.126,0.126,0.127,0.128,0.128,0.128,0.128,0.128,0.128,0.128
572,0.166,0.165,0.166,0.167,0.167,0.168,0.167,0.166,0.166,0.166
575,0.194,0.195,0.194,0.195,0.195,0.196,0.196,0.195,0.194,0.194
578,0.254,0.254,0.253,0.252,0.252,0.252,0.253,0.252,0.252,0.253
581,0.305,0.304,0.304,0.303,0.304,0.303,0.304,0.304,0.305,0.304
584,0.39,0.39,0.387,0.388,0.385,0.386,0.385,0.385,0.384,0.386
587,0.44,0.441,0.44,0.441,0.443,0.443,0.445,0.444,0.445,0.446
590,0.507,0.508,0.51,0.511,0.511,0.512,0.512,0.514,0.512,0.509
593,0.578,0.579,0.579,0.579,0.581,0.581,0.58,0.58,0.582,0.581
596,0.611,0.611,0.611,0.612,0.611,0.612,0.611,0.614,0.611,0.612
599,0.701,0.699,0.701,0.701,0.704,0.702,0.706,0.702,0.703,0.704
602,0.754,0.749,0.748,0.75,0.749,0.75,0.75,0.751,0.751,0.754
605,0.762,0.763,0.765,0.766,0.764,0.765,0.764,0.762,0.76,0.759
608,0.837,0.837,0.84,0.841,0.841,0.842,0.841,0.844,0.841,0.839
611,0.843,0.843,0.842,0.843,0.843,0.84,0.841,0.849,0.847,0.846
614,0.843,0.843,0.843,0.843,0.84,0.841,0.841,0.844,0.843,0.841
617,0.903,0.905,0.905,0.907,0.906,0.905,0.905,0.905,0.905,0.901
620,0.889,0.888,0.887,0.886,0.886,0.885,0.884,0.881,0.881,0.885
623,0.876,0.878,0.876,0.874,0.876,0.875,0.875,0.88,0.879,0.879
626,0.898,0.895,0.892,0.894,0.892,0.89,0.891,0.89,0.892,0.898
629,0.912,0.913,0.912,0.914,0.914,0.916,0.917,0.913,0.913,0.915
632,0.887,0.889,0.89,0.89,0.89,0.893,0.892,0.884,0.883,0.881
635,0.88,0.882,0.884,0.883,0.886,0.888,0.887,0.893,0.888,0.888
638,0.912,0.912,0.912,0.91,0.912,0.914,0.914,0.914,0.916,0.914
641,0.901,0.9,0.899,0.898,0.895,0.894,0.895,0.895,0.895,0.894
644,0.892,0.889,0.888,0.886,0.885,0.882,0.882,0.881,0.883,0.887
647,0.862,0.863,0.862,0.862,0.863,0.866,0.865,0.869,0.869,0.867
650,0.867,0.87,0.872,0.87,0.87,0.87,0.87,0.871,0.868,0.867
653,0.851,0.852,0.854,0.855,0.856,0.858,0.858,0.862,0.86,0.86
656,0.868,0.868,0.87,0.868,0.871,0.874,0.872,0.871,0.873,0.873
659,0.843,0.845,0.845,0.845,0.85,0.851,0.851,0.853,0.852,0.852
662,0.848,0.847,0.848,0.85,0.849,0.848,0.848,0.847,0.845,0.845
665,0.836,0.837,0.84,0.838,0.839,0.837,0.838,0.832,0.832,0.828
668,0.816,0.817,0.818,0.818,0.818,0.82,0.821,0.82,0.819,0.819
671,0.833,0.834,0.832,0.831,0.831,0.832,0.831,0.832,0.832,0.835
674,0.821,0.822,0.822,0.826,0.825,0.824,0.826,0.826,0.827,0.825
677,0.802,0.804,0.806,0.809,0.809,0.812,0.814,0.82,0.82,0.818
680,0.791,0.789,0.789,0.788,0.79,0.789,0.789,0.79,0.792,0.796
683,0.774,0.776,0.774,0.772,0.773,0.77,0.77,0.77,0.773,0.776
686,0.733,0.731,0.73,0.73,0.73,0.73,0.732,0.734,0.735,0.736
689,0.703,0.705,0.708,0.709,0.707,0.707,0.707,0.715,0.711,0.708
692,0.722,0.721,0.725,0.721,0.72,0.72,0.719,0.719,0.716,0.716
695,0.727,0.724,0.725,0.726,0.725,0.726,0.725,0.723,0.726,0.726
698,0.666,0.666,0.667,0.667,0.666,0.666,0.666,0.666,0.666,0.665
701,0.67,0.67,0.669,0.67,0.67,0.669,0.669,0.669,0.666,0.668
704,0.622,0.623,0.623,0.623,0.624,0.625,0.627,0.624,0.623,0.621
707,0.649,0.648,0.649,0.646,0.648,0.652,0.651,0.65,0.649,0.649
710,0.616,0.612,0.614,0.615,0.617,0.618,0.618,0.622,0.625,0.624
713,0.63,0.632,0.631,0.633,0.634,0.634,0.636,0.636,0.635,0.635
716,0.599,0.602,0.604,0.604,0.607,0.609,0.608,0.615,0.612,0.607
719,0.575,0.574,0.576,0.576,0.576,0.577,0.579,0.58,0.579,0.578
722,0.61,0.612,0.612,0.614,0.614,0.612,0.614,0.615,0.616,0.613
725,0.593,0.593,0.595,0.594,0.596,0.596,0.596,0.599,0.6,0.599
728,0.531,0.531,0.532,0.532,0.533,0.536,0.536,0.54,0.538,0.535
731,0.547,0.547,0.547,0.547,0.547,0.545,0.547,0.547,0.545,0.545
734,0.521,0.521,0.52,0.52,0.518,0.519,0.52,0.523,0.522,0.523
737,0.514,0.514,0.516,0.517,0.517,0.516,0.517,0.515,0.516,0.515
740,0.468,0.468,0.468,0.469,0.468,0.469,0.467,0.471,0.473,0.474
743,0.499,0.495,0.495,0.493,0.491,0.492,0.491,0.49,0.493,0.497
746,0.481,0.481,0.48,0.48,0.481,0.482,0.482,0.483,0.482,0.483
749,0.459,0.458,0.457,0.458,0.457,0.457,0.455,0.457,0.458,0.457
752,0.454,0.454,0.452,0.45,0.449,0.447,0.446,0.446,0.448,0.45
755,0.44,0.44,0.437,0.437,0.435,0.434,0.435,0.429,0.431,0.429
758,0.427,0.427,0.427,0.428,0.428,0.429,0.43,0.427,0.428,0.427
761,0.406,0.411,0.412,0.413,0.411,0.411,0.411,0.41,0.407,0.402
764,0.4,0.402,0.402,0.402,0.402,0.403,0.401,0.4,0.399,0.396
767,0.363,0.363,0.363,0.365,0.364,0.366,0.364,0.364,0.364,0.364
770,0.358,0.357,0.357,0.358,0.359,0.359,0.36,0.364,0.364,0.366
773,0.353,0.354,0.355,0.356,0.356,0.357,0.356,0.36,0.359,0.36
776,0.313,0.316,0.315,0.316,0.317,0.319,0.319,0.322,0.322,0.32
779,0.315,0.315,0.314,0.313,0.312,0.311,0.312,0.31,0.312,0.312
782,0.32,0.32,0.321,0.32,0.32,0.319,0.32,0.316,0.316,0.318
785,0.314,0.314,0.315,0.314,0.314,0.314,0.314,0.312,0.312,0.313
788,0.305,0.306,0.306,0.307,0.305,0.305,0.305,0.305,0.305,0.304
791,0.308,0.307,0.308,0.308,0.308,0.308,0.307,0.305,0.303,0.304
794,0.29,0.29,0.291,0.291,0.29,0.29,0.289,0.289,0.287,0.286
797,0.292,0.293,0.292,0.292,0.291,0.291,0.291,0.288,0.286,0.286
800,0.308,0.308,0.308,0.307,0.307,0.306,0.306,0.304,0.304,0.305