File: data/ThinFilm.csv
Latest: Wavelength (nm),Run 12: Intensity (rel),Run 13: Intensity (rel),Run 14: Intensity (rel),Run 15: Intensity (rel),Run 16: Intensity (rel),Run 17: Intensity (rel),Run 18: Intensity (rel),Run 19: Intensity (rel),Run 20: Intensity (rel),Run 21: Intensity (rel)
380,0.009,0.009,0.009,0.008,0.009,0.009,0.009,0.009,0.009,0.009
383,0.011,0.011,0.011,0.011,0.011,0.011,0.011,0.011,0.011,0.011
386,0.013,0.013,0.013,0.013,0.013,0.013,0.013,0.013,0.013,0.013
389,0.015,0.016,0.016,0.016,0.016,0.015,0.015,0.016,0.016,0.015
392,0.017,0.017,0.018,0.017,0.017,0.017,0.018,0.017,0.018,0.018
395,0.021,0.021,0.021,0.021,0.021,0.021,0.021,0.021,0.021,0.021
398,0.024,0.025,0.025,0.024,0.024,0.024,0.025,0.024,0.024,0.024
401,0.028,0.028,0.028,0.028,0.028,0.028,0.028,0.027,0.028,0.028
404,0.031,0.031,0.031,0.031,0.031,0.031,0.031,0.031,0.031,0.031
407,0.033,0.033,0.034,0.034,0.033,0.033,0.033,0.033,0.033,0.033
410,0.037,0.037,0.037,0.037,0.037,0.037,0.037,0.037,0.037,0.037
413,0.04,0.04,0.041,0.04,0.041,0.04,0.04,0.04,0.04,0.04
416,0.042,0.042,0.042,0.042,0.042,0.042,0.042,0.042,0.042,0.042
419,0.044,0.045,0.045,0.044,0.045,0.045,0.045,0.045,0.045,0.045
422,0.046,0.045,0.046,0.046,0.046,0.046,0.046,0.046,0.046,0.046
425,0.048,0.048,0.049,0.048,0.048,0.048,0.048,0.048,0.048,0.047
428,0.05,0.049,0.049,0.049,0.049,0.048,0.048,0.049,0.048,0.049
431,0.049,0.05,0.05,0.05,0.05,0.05,0.05,0.05,0.05,0.051
434,0.05,0.05,0.05,0.05,0.05,0.05,0.05,0.049,0.05,0.049
437,0.053,0.052,0.052,0.052,0.052,0.052,0.053,0.052,0.052,0.051
440,0.051,0.051,0.051,0.05,0.051,0.051,0.051,0.051,0.051,0.051
443,0.054,0.054,0.054,0.054,0.054,0.054,0.054,0.054,0.054,0.054
446,0.055,0.055,0.055,0.055,0.054,0.054,0.054,0.055,0.054,0.054
449,0.053,0.052,0.053,0.052,0.052,0.053,0.052,0.052,0.052,0.053
452,0.054,0.055,0.055,0.055,0.055,0.054,0.055,0.055,0.055,0.054
455,0.053,0.053,0.052,0.053,0.052,0.052,0.052,0.053,0.052,0.052
458,0.052,0.052,0.051,0.051,0.052,0.052,0.052,0.052,0.051,0.052
461,0.053,0.053,0.053,0.053,0.053,0.053,0.053,0.053,0.053,0.054
464,0.053,0.053,0.053,0.053,0.053,0.053,0.053,0.054,0.053,0.053
467,0.055,0.055,0.054,0.055,0.055,0.055,0.055,0.055,0.055,0.054
470,0.057,0.057,0.058,0.057,0.057,0.057,0.058,0.057,0.057,0.058
473,0.063,0.063,0.063,0.063,0.063,0.063,0.063,0.063,0.063,0.063
476,0.069,0.069,0.069,0.069,0.068,0.069,0.069,0.07,0.069,0.069
479,0.075,0.075,0.075,0.074,0.074,0.075,0.075,0.075,0.075,0.075
482,0.084,0.085,0.085,0.085,0.085,0.085,0.085,0.086,0.085,0.085
485,0.101,0.101,0.101,0.101,0.101,0.101,0.101,0.101,0.101,0.102
488,0.108,0.108,0.108,0.108,0.109,0.109,0.109,0.108,0.108,0.108
491,0.122,0.123,0.123,0.123,0.123,0.123,0.123,0.123,0.123,0.124
494,0.137,0.136,0.137,0.137,0.137,0.137,0.137,0.136,0.136,0.137
497,0.148,0.148,0.148,0.147,0.147,0.147,0.148,0.147,0.148,0.148
500,0.159,0.158,0.159,0.159,0.159,0.159,0.159,0.159,0.159,0.159
503,0.164,0.164,0.164,0.164,0.164,0.163,0.164,0.164,0.164,0.163
506,0.182,0.182,0.182,0.181,0.181,0.181,0.181,0.181,0.18,0.181
509,0.193,0.193,0.194,0.193,0.195,0.194,0.194,0.193,0.193,0.193
512,0.206,0.205,0.207,0.206,0.206,0.207,0.206,0.206,0.206,0.206
515,0.225,0.225,0.225,0.225,0.225,0.225,0.225,0.224,0.224,0.224
518,0.235,0.236,0.236,0.236,0.237,0.236,0.236,0.235,0.236,0.236
521,0.25,0.25,0.25,0.25,0.249,0.249,0.251,0.251,0.251,0.251
524,0.268,0.269,0.269,0.27,0.269,0.269,0.269,0.269,0.268,0.269
527,0.284,0.283,0.282,0.283,0.281,0.282,0.282,0.284,0.283,0.282
530,0.289,0.29,0.29,0.291,0.293,0.291,0.291,0.29,0.29,0.29
533,0.317,0.317,0.318,0.316,0.317,0.318,0.317,0.317,0.318,0.318
536,0.325,0.325,0.326,0.324,0.324,0.325,0.324,0.324,0.324,0.325
539,0.341,0.342,0.341,0.342,0.342,0.342,0.342,0.342,0.342,0.342
542,0.353,0.353,0.353,0.352,0.355,0.354,0.353,0.351,0.352,0.351
545,0.345,0.347,0.347,0.345,0.344,0.346,0.346,0.346,0.345,0.347
548,0.359,0.357,0.356,0.357,0.358,0.356,0.356,0.356,0.356,0.355
551,0.334,0.335,0.337,0.335,0.335,0.336,0.336,0.336,0.336,0.335
554,0.338,0.338,0.337,0.338,0.339,0.337,0.34,0.339,0.339,0.339
557,0.333,0.331,0.332,0.332,0.333,0.333,0.331,0.332,0.331,0.332
560,0.334,0.333,0.333,0.333,0.333,0.332,0.334,0.334,0.334,0.333
563,0.336,0.335,0.335,0.335,0.335,0.335,0.336,0.337,0.337,0.336
566,0.373,0.373,0.373,0.371,0.368,0.369,0.371,0.373,0.372,0.372
569,0.397,0.397,0.396,0.396,0.398,0.397,0.397,0.398,0.399,0.398
572,0.426,0.426,0.426,0.425,0.425,0.426,0.426,0.424,0.426,0.425
575,0.422,0.421,0.422,0.422,0.422,0.424,0.422,0.421,0.421,0.422
578,0.455,0.453,0.455,0.455,0.455,0.455,0.453,0.452,0.452,0.452
581,0.485,0.485,0.485,0.486,0.486,0.486,0.486,0.485,0.485,0.485
584,0.533,0.533,0.532,0.534,0.536,0.534,0.533,0.532,0.533,0.533
587,0.569,0.568,0.569,0.571,0.573,0.57,0.57,0.569,0.57,0.57
590,0.593,0.594,0.594,0.591,0.592,0.591,0.592,0.596,0.596,0.595
593,0.633,0.634,0.634,0.635,0.635,0.634,0.635,0.635,0.635,0.636
596,0.628,0.626,0.628,0.629,0.632,0.631,0.63,0.632,0.631,0.632
599,0.684,0.684,0.686,0.687,0.686,0.686,0.686,0.685,0.685,0.689
602,0.712,0.712,0.711,0.711,0.715,0.713,0.712,0.71,0.711,0.711
605,0.697,0.699,0.697,0.697,0.698,0.698,0.697,0.698,0.699,0.699
608,0.744,0.745,0.744,0.744,0.741,0.742,0.743,0.745,0.744,0.745
611,0.741,0.74,0.74,0.741,0.738,0.74,0.74,0.741,0.741,0.741
614,0.724,0.723,0.724,0.724,0.724,0.725,0.724,0.726,0.725,0.724
617,0.77,0.771,0.77,0.769,0.767,0.769,0.77,0.772,0.772,0.773
620,0.746,0.744,0.748,0.746,0.746,0.747,0.747,0.744,0.744,0.745
623,0.746,0.744,0.746,0.747,0.748,0.748,0.747,0.748,0.748,0.748
626,0.751,0.752,0.75,0.753,0.758,0.757,0.754,0.751,0.75,0.752
629,0.768,0.768,0.769,0.767,0.769,0.769,0.769,0.769,0.77,0.768
632,0.742,0.741,0.741,0.74,0.737,0.737,0.739,0.741,0.744,0.743
635,0.742,0.743,0.743,0.742,0.742,0.742,0.743,0.744,0.745,0.744
638,0.771,0.771,0.77,0.77,0.772,0.771,0.773,0.771,0.77,0.768
641,0.757,0.755,0.755,0.757,0.758,0.756,0.756,0.756,0.755,0.754
644,0.741,0.74,0.741,0.742,0.746,0.745,0.741,0.74,0.739,0.74
647,0.739,0.74,0.74,0.739,0.738,0.738,0.739,0.739,0.741,0.739
650,0.735,0.733,0.735,0.732,0.73,0.73,0.732,0.735,0.734,0.735
653,0.736,0.735,0.738,0.736,0.735,0.735,0.737,0.739,0.74,0.739
656,0.747,0.745,0.747,0.747,0.75,0.751,0.75,0.748,0.749,0.75
659,0.738,0.738,0.739,0.739,0.74,0.738,0.74,0.739,0.739,0.74
662,0.726,0.725,0.725,0.725,0.724,0.723,0.726,0.724,0.724,0.724
665,0.712,0.712,0.712,0.712,0.71,0.712,0.711,0.71,0.711,0.709
668,0.714,0.714,0.715,0.713,0.711,0.713,0.715,0.715,0.715,0.713
671,0.734,0.736,0.735,0.735,0.732,0.732,0.733,0.733,0.734,0.732
674,0.726,0.727,0.727,0.727,0.727,0.727,0.727,0.729,0.729,0.73
677,0.721,0.721,0.722,0.721,0.72,0.72,0.722,0.724,0.723,0.722
680,0.7,0.698,0.699,0.701,0.7,0.699,0.698,0.696,0.695,0.696
683,0.685,0.686,0.685,0.688,0.688,0.686,0.685,0.683,0.683,0.684
686,0.659,0.659,0.66,0.66,0.662,0.662,0.662,0.66,0.662,0.662
689,0.631,0.633,0.633,0.632,0.633,0.634,0.635,0.637,0.636,0.636
692,0.648,0.649,0.648,0.649,0.645,0.646,0.647,0.649,0.65,0.649
695,0.658,0.66,0.66,0.659,0.658,0.657,0.658,0.661,0.66,0.66
698,0.612,0.611,0.611,0.61,0.609,0.609,0.611,0.612,0.612,0.613
701,0.608,0.609,0.607,0.608,0.607,0.609,0.608,0.61,0.608,0.609
704,0.576,0.576,0.578,0.577,0.573,0.575,0.578,0.579,0.579,0.578
707,0.606,0.607,0.608,0.608,0.605,0.607,0.607,0.608,0.609,0.608
710,0.583,0.583,0.585,0.585,0.586,0.585,0.585,0.584,0.585,0.587
713,0.588,0.588,0.589,0.586,0.585,0.587,0.586,0.587,0.588,0.589
716,0.566,0.568,0.569,0.568,0.567,0.568,0.571,0.574,0.573,0.573
719,0.549,0.549,0.551,0.551,0.552,0.553,0.552,0.552,0.552,0.553
722,0.576,0.576,0.576,0.576,0.576,0.576,0.577,0.576,0.576,0.577
725,0.564,0.565,0.565,0.563,0.562,0.563,0.564,0.566,0.566,0.564
728,0.516,0.516,0.516,0.515,0.515,0.516,0.516,0.518,0.517,0.517
731,0.519,0.519,0.519,0.517,0.516,0.518,0.519,0.52,0.518,0.518
734,0.499,0.499,0.499,0.5,0.501,0.498,0.499,0.499,0.499,0.498
737,0.493,0.493,0.493,0.493,0.492,0.493,0.493,0.494,0.493,0.493
740,0.456,0.457,0.458,0.459,0.461,0.461,0.46,0.459,0.46,0.461
743,0.479,0.478,0.479,0.48,0.484,0.482,0.48,0.477,0.478,0.479
746,0.472,0.473,0.473,0.472,0.472,0.474,0.474,0.473,0.473,0.473
749,0.444,0.446,0.444,0.444,0.446,0.446,0.445,0.445,0.447,0.445
752,0.438,0.438,0.439,0.439,0.441,0.44,0.439,0.436,0.436,0.437
755,0.42,0.419,0.42,0.42,0.419,0.42,0.418,0.418,0.418,0.419
758,0.422,0.423,0.424,0.422,0.422,0.421,0.423,0.423,0.424,0.423
761,0.4,0.399,0.398,0.396,0.392,0.394,0.397,0.4,0.4,0.399
764,0.394,0.395,0.393,0.392,0.39,0.392,0.392,0.393,0.392,0.392
767,0.365,0.366,0.365,0.365,0.365,0.364,0.365,0.365,0.366,0.365
770,0.368,0.369,0.369,0.369,0.37,0.37,0.372,0.369,0.371,0.37
773,0.359,0.361,0.361,0.359,0.359,0.359,0.359,0.362,0.362,0.361
776,0.325,0.325,0.325,0.327,0.324,0.326,0.328,0.33,0.33,0.331
779,0.314,0.313,0.314,0.313,0.314,0.313,0.313,0.313,0.312,0.312
782,0.326,0.325,0.325,0.324,0.324,0.324,0.325,0.323,0.323,0.324
785,0.318,0.318,0.318,0.318,0.316,0.316,0.318,0.318,0.318,0.318
788,0.313,0.313,0.313,0.314,0.312,0.313,0.312,0.312,0.312,0.312
791,0.314,0.312,0.312,0.313,0.312,0.311,0.31,0.31,0.31,0.311
794,0.295,0.294,0.293,0.292,0.291,0.292,0.292,0.294,0.293,0.293
797,0.296,0.296,0.295,0.293,0.292,0.291,0.292,0.293,0.293,0.293
800,0.314,0.313,0.313,0.313,0.312,0.312,0.311,0.311,0.311,0.311